Frequency (Hz)	Level (dB)
4.000000	-48.063374
8.000000	-78.949059
12.000000	-80.159851
16.000000	-80.751183
20.000000	-87.209885
24.000000	-83.107773
28.000000	-83.706566
32.000000	-84.813667
36.000000	-79.369698
40.000000	-74.694878
44.000000	-69.436874
48.000000	-63.335922
52.000000	-66.168045
56.000000	-70.458450
60.000000	-72.251945
64.000000	-71.438309
68.000000	-71.421227
72.000000	-71.880150
76.000000	-72.714226
80.000000	-69.610191
84.000000	-70.177353
88.000000	-68.918159
92.000000	-60.070522
96.000000	-48.754566
100.000000	-49.380432
104.000000	-60.828220
108.000000	-70.664749
112.000000	-69.665474
116.000000	-70.862640
120.000000	-72.760757
124.000000	-75.702713
128.000000	-74.424049
132.000000	-72.764664
136.000000	-72.117645
140.000000	-65.712196
144.000000	-59.588875
148.000000	-59.603077
152.000000	-63.652485
156.000000	-70.463882
160.000000	-77.309578
164.000000	-79.122261
168.000000	-77.852898
172.000000	-77.991341
176.000000	-78.846786
180.000000	-81.357506
184.000000	-79.074089
188.000000	-80.313492
192.000000	-71.970955
196.000000	-71.477180
200.000000	-72.029083
204.000000	-75.837540
208.000000	-78.237808
212.000000	-77.295860
216.000000	-77.303696
220.000000	-77.503304
224.000000	-78.059731
228.000000	-80.156113
232.000000	-82.008125
236.000000	-78.644905
240.000000	-70.203896
244.000000	-64.145889
248.000000	-65.248924
252.000000	-69.801765
256.000000	-74.488976
260.000000	-74.464081
264.000000	-73.020569
268.000000	-72.211060
272.000000	-71.446754
276.000000	-70.350037
280.000000	-69.746193
284.000000	-69.079819
288.000000	-62.963711
292.000000	-53.781067
296.000000	-53.446789
300.000000	-60.874580
304.000000	-70.178673
308.000000	-70.436630
312.000000	-71.874420
316.000000	-73.348755
320.000000	-76.209984
324.000000	-77.286613
328.000000	-76.837418
332.000000	-76.729836
336.000000	-74.676689
340.000000	-66.188446
344.000000	-63.664215
348.000000	-68.985291
352.000000	-78.379158
356.000000	-79.865395
360.000000	-82.039909
364.000000	-81.872368
368.000000	-82.582321
372.000000	-84.873436
376.000000	-83.849686
380.000000	-82.081520
384.000000	-75.544472
388.000000	-69.086052
392.000000	-66.574295
396.000000	-68.864609
400.000000	-74.326813
404.000000	-79.165001
408.000000	-88.357689
412.000000	-81.125702
416.000000	-78.339401
420.000000	-76.669937
424.000000	-77.681747
428.000000	-80.987091
432.000000	-80.105995
436.000000	-73.562325
440.000000	-68.714851
444.000000	-70.773819
448.000000	-74.127525
452.000000	-79.333855
456.000000	-78.944084
460.000000	-79.582664
464.000000	-82.309326
468.000000	-85.088387
472.000000	-79.920853
476.000000	-77.621109
480.000000	-80.504944
484.000000	-75.637238
488.000000	-68.504807
492.000000	-68.733147
496.000000	-76.729340
500.000000	-77.147217
504.000000	-78.401993
508.000000	-81.520905
512.000000	-84.954262
516.000000	-87.958641
520.000000	-81.989212
524.000000	-80.567223
528.000000	-77.432823
532.000000	-77.269257
536.000000	-69.473122
540.000000	-69.233276
544.000000	-74.555374
548.000000	-78.544647
552.000000	-79.668877
556.000000	-82.614288
560.000000	-79.530670
564.000000	-82.075012
568.000000	-83.791214
572.000000	-77.192642
576.000000	-74.631187
580.000000	-72.574989
584.000000	-62.454090
588.000000	-59.941967
592.000000	-62.141644
596.000000	-70.046471
600.000000	-77.305382
604.000000	-80.018013
608.000000	-78.912132
612.000000	-79.374275
616.000000	-84.230309
620.000000	-85.043259
624.000000	-80.649834
628.000000	-77.020515
632.000000	-72.909195
636.000000	-71.906601
640.000000	-72.331841
644.000000	-73.465996
648.000000	-77.921974
652.000000	-85.154755
656.000000	-86.630592
660.000000	-85.323990
664.000000	-85.174301
668.000000	-82.761070
672.000000	-83.140244
676.000000	-80.407722
680.000000	-73.449974
684.000000	-66.319237
688.000000	-66.790001
692.000000	-73.472466
696.000000	-77.604362
700.000000	-81.143311
704.000000	-86.896637
708.000000	-82.373123
712.000000	-82.282745
716.000000	-86.341629
720.000000	-83.971809
724.000000	-81.363884
728.000000	-74.418335
732.000000	-73.114647
736.000000	-73.946136
740.000000	-75.324333
744.000000	-79.404350
748.000000	-84.727669
752.000000	-82.168564
756.000000	-80.559235
760.000000	-80.291420
764.000000	-80.697968
768.000000	-81.759720
772.000000	-77.740509
776.000000	-77.836479
780.000000	-72.239380
784.000000	-68.384491
788.000000	-71.206657
792.000000	-74.378265
796.000000	-77.698105
800.000000	-82.085503
804.000000	-79.804764
808.000000	-79.702583
812.000000	-83.117699
816.000000	-84.937965
820.000000	-82.898460
824.000000	-78.676865
828.000000	-71.233284
832.000000	-68.132973
836.000000	-71.048424
840.000000	-77.297974
844.000000	-78.882179
848.000000	-81.748039
852.000000	-80.086830
856.000000	-83.269356
860.000000	-85.121605
864.000000	-81.461884
868.000000	-79.154152
872.000000	-80.192268
876.000000	-76.578377
880.000000	-75.778961
884.000000	-77.486229
888.000000	-78.869514
892.000000	-80.964760
896.000000	-79.899269
900.000000	-81.606606
904.000000	-84.960098
908.000000	-81.874229
912.000000	-79.431313
916.000000	-80.023094
920.000000	-82.251091
924.000000	-82.433891
928.000000	-75.624023
932.000000	-73.685333
936.000000	-75.460693
940.000000	-76.030014
944.000000	-78.490356
948.000000	-82.849510
952.000000	-85.206482
956.000000	-89.515709
960.000000	-83.564552
964.000000	-79.207947
968.000000	-80.280609
972.000000	-80.855530
976.000000	-74.212837
980.000000	-69.804977
984.000000	-73.998917
988.000000	-78.612213
992.000000	-84.391357
996.000000	-83.387558
1000.000000	-82.741768
1004.000000	-85.600365
1008.000000	-85.396767
1012.000000	-87.403931
1016.000000	-83.166702
1020.000000	-79.760658
1024.000000	-75.528458
1028.000000	-69.996452
1032.000000	-70.957413
1036.000000	-76.621185
1040.000000	-79.134415
1044.000000	-84.938354
1048.000000	-84.660202
1052.000000	-85.994217
1056.000000	-84.681801
1060.000000	-87.733040
1064.000000	-88.055367
1068.000000	-82.515465
1072.000000	-77.821350
1076.000000	-73.499649
1080.000000	-72.726562
1084.000000	-79.198013
1088.000000	-86.349167
1092.000000	-87.715843
1096.000000	-83.087517
1100.000000	-81.640045
1104.000000	-82.005363
1108.000000	-82.135384
1112.000000	-83.095871
1116.000000	-83.278511
1120.000000	-80.279022
1124.000000	-77.837273
1128.000000	-76.769348
1132.000000	-77.250534
1136.000000	-84.083641
1140.000000	-83.678772
1144.000000	-87.766640
1148.000000	-82.648499
1152.000000	-85.897820
1156.000000	-82.913116
1160.000000	-79.140343
1164.000000	-78.219704
1168.000000	-77.302704
1172.000000	-73.685181
1176.000000	-73.031212
1180.000000	-79.302109
1184.000000	-79.723251
1188.000000	-78.660522
1192.000000	-82.979881
1196.000000	-85.445335
1200.000000	-84.688217
1204.000000	-85.822334
1208.000000	-90.565659
1212.000000	-85.586739
1216.000000	-86.253448
1220.000000	-77.619400
1224.000000	-73.676476
1228.000000	-77.966263
1232.000000	-82.081261
1236.000000	-78.520996
1240.000000	-81.929527
1244.000000	-86.418999
1248.000000	-84.213844
1252.000000	-86.758072
1256.000000	-91.891342
1260.000000	-84.394829
1264.000000	-86.453156
1268.000000	-76.018959
1272.000000	-73.978531
1276.000000	-79.408249
1280.000000	-83.191139
1284.000000	-84.487411
1288.000000	-81.391037
1292.000000	-85.299309
1296.000000	-86.734360
1300.000000	-85.123306
1304.000000	-83.213974
1308.000000	-84.293655
1312.000000	-85.372147
1316.000000	-81.261269
1320.000000	-78.321182
1324.000000	-77.207771
1328.000000	-77.412834
1332.000000	-79.508553
1336.000000	-82.338600
1340.000000	-84.697548
1344.000000	-84.228752
1348.000000	-85.699249
1352.000000	-84.723419
1356.000000	-83.814369
1360.000000	-85.523003
1364.000000	-84.251274
1368.000000	-83.723083
1372.000000	-78.677574
1376.000000	-75.987526
1380.000000	-76.323402
1384.000000	-79.451469
1388.000000	-81.620415
1392.000000	-82.993370
1396.000000	-85.646103
1400.000000	-83.482880
1404.000000	-85.528473
1408.000000	-88.275238
1412.000000	-88.526497
1416.000000	-79.893410
1420.000000	-73.919121
1424.000000	-76.089401
1428.000000	-84.211800
1432.000000	-91.283371
1436.000000	-85.697845
1440.000000	-87.264595
1444.000000	-87.135849
1448.000000	-87.080330
1452.000000	-82.062172
1456.000000	-78.970428
1460.000000	-80.108231
1464.000000	-78.507057
1468.000000	-75.031685
1472.000000	-77.819359
1476.000000	-83.065788
1480.000000	-82.437607
1484.000000	-84.573105
1488.000000	-89.148430
1492.000000	-90.350685
1496.000000	-94.353302
1500.000000	-87.334343
1504.000000	-87.479439
1508.000000	-80.678673
1512.000000	-80.507675
1516.000000	-80.884705
1520.000000	-78.758942
1524.000000	-77.042191
1528.000000	-78.243813
1532.000000	-80.936142
1536.000000	-81.428307
1540.000000	-82.805389
1544.000000	-83.377289
1548.000000	-82.749916
1552.000000	-83.078430
1556.000000	-81.718544
1560.000000	-81.732231
1564.000000	-75.645905
1568.000000	-75.023697
1572.000000	-77.394547
1576.000000	-82.913727
1580.000000	-82.942963
1584.000000	-89.262352
1588.000000	-88.009735
1592.000000	-89.350266
1596.000000	-86.238762
1600.000000	-83.977974
1604.000000	-82.561050
1608.000000	-85.141716
1612.000000	-80.512962
1616.000000	-76.285370
1620.000000	-77.562607
1624.000000	-80.755104
1628.000000	-80.898636
1632.000000	-83.477158
1636.000000	-84.295158
1640.000000	-91.039841
1644.000000	-84.501419
1648.000000	-84.260101
1652.000000	-84.165405
1656.000000	-82.946571
1660.000000	-85.526070
1664.000000	-79.342728
1668.000000	-79.628830
1672.000000	-78.304367
1676.000000	-80.495705
1680.000000	-84.023766
1684.000000	-84.343315
1688.000000	-84.912529
1692.000000	-89.415443
1696.000000	-87.309029
1700.000000	-83.713577
1704.000000	-82.888222
1708.000000	-79.241699
1712.000000	-75.930450
1716.000000	-75.147148
1720.000000	-78.580551
1724.000000	-82.777245
1728.000000	-82.982140
1732.000000	-83.954453
1736.000000	-85.462524
1740.000000	-83.842552
1744.000000	-86.335808
1748.000000	-89.971031
1752.000000	-87.634232
1756.000000	-84.449829
1760.000000	-82.789825
1764.000000	-83.739540
1768.000000	-81.169716
1772.000000	-84.720634
1776.000000	-85.522789
1780.000000	-85.259163
1784.000000	-82.776627
1788.000000	-86.908760
1792.000000	-88.734344
1796.000000	-85.003983
1800.000000	-84.619049
1804.000000	-83.817589
1808.000000	-82.484245
1812.000000	-78.940147
1816.000000	-79.223137
1820.000000	-80.994713
1824.000000	-79.897919
1828.000000	-82.364296
1832.000000	-84.524986
1836.000000	-85.468147
1840.000000	-87.502701
1844.000000	-86.832977
1848.000000	-86.551224
1852.000000	-86.478333
1856.000000	-81.741211
1860.000000	-77.973183
1864.000000	-80.458572
1868.000000	-84.447594
1872.000000	-84.253044
1876.000000	-84.953239
1880.000000	-84.424568
1884.000000	-84.368500
1888.000000	-87.917946
1892.000000	-88.757050
1896.000000	-89.298897
1900.000000	-87.474899
1904.000000	-85.480080
1908.000000	-77.921738
1912.000000	-77.222466
1916.000000	-78.060280
1920.000000	-82.245964
1924.000000	-88.234138
1928.000000	-87.476364
1932.000000	-90.121201
1936.000000	-94.267014
1940.000000	-89.322571
1944.000000	-84.928268
1948.000000	-84.166252
1952.000000	-82.968208
1956.000000	-79.912384
1960.000000	-82.109596
1964.000000	-86.103157
1968.000000	-89.353195
1972.000000	-86.491737
1976.000000	-84.037926
1980.000000	-85.483871
1984.000000	-89.398178
1988.000000	-87.353157
1992.000000	-87.137802
1996.000000	-85.388702
2000.000000	-83.602867
2004.000000	-80.756111
2008.000000	-80.514450
2012.000000	-83.112648
2016.000000	-84.217903
2020.000000	-85.254509
2024.000000	-88.479538
2028.000000	-87.594467
2032.000000	-85.683739
2036.000000	-85.647217
2040.000000	-84.225044
2044.000000	-82.799217
2048.000000	-81.930450
2052.000000	-82.928215
2056.000000	-82.504402
2060.000000	-81.301086
2064.000000	-77.769180
2068.000000	-79.338387
2072.000000	-84.696114
2076.000000	-88.338737
2080.000000	-88.640327
2084.000000	-86.685173
2088.000000	-87.451591
2092.000000	-88.504288
2096.000000	-86.257278
2100.000000	-81.573700
2104.000000	-78.824585
2108.000000	-79.514572
2112.000000	-82.538582
2116.000000	-85.160637
2120.000000	-86.495674
2124.000000	-85.031906
2128.000000	-86.841179
2132.000000	-85.237038
2136.000000	-81.657379
2140.000000	-84.779938
2144.000000	-86.167328
2148.000000	-84.303825
2152.000000	-87.282204
2156.000000	-79.924408
2160.000000	-78.860718
2164.000000	-81.901665
2168.000000	-84.529968
2172.000000	-83.911041
2176.000000	-84.459686
2180.000000	-84.770897
2184.000000	-85.430321
2188.000000	-88.113121
2192.000000	-89.828705
2196.000000	-86.962715
2200.000000	-81.447105
2204.000000	-78.276512
2208.000000	-78.984177
2212.000000	-79.931000
2216.000000	-80.552147
2220.000000	-83.578247
2224.000000	-86.997078
2228.000000	-87.131630
2232.000000	-87.553383
2236.000000	-91.072639
2240.000000	-89.630737
2244.000000	-86.811821
2248.000000	-86.686142
2252.000000	-84.076874
2256.000000	-81.223434
2260.000000	-81.479607
2264.000000	-83.842094
2268.000000	-84.728271
2272.000000	-85.507301
2276.000000	-87.666710
2280.000000	-88.716293
2284.000000	-86.757439
2288.000000	-88.962547
2292.000000	-89.934662
2296.000000	-83.843277
2300.000000	-83.231155
2304.000000	-85.027916
2308.000000	-84.557274
2312.000000	-87.201118
2316.000000	-89.852516
2320.000000	-87.639191
2324.000000	-88.168625
2328.000000	-90.651840
2332.000000	-90.718285
2336.000000	-86.492088
2340.000000	-84.886795
2344.000000	-88.119385
2348.000000	-90.345596
2352.000000	-83.315216
2356.000000	-84.086990
2360.000000	-87.657761
2364.000000	-84.172325
2368.000000	-85.323296
2372.000000	-91.367874
2376.000000	-89.367676
2380.000000	-85.687798
2384.000000	-86.512634
2388.000000	-84.709023
2392.000000	-84.733055
2396.000000	-81.169891
2400.000000	-79.067360
2404.000000	-80.749825
2408.000000	-82.549355
2412.000000	-83.113846
2416.000000	-84.796432
2420.000000	-90.150223
2424.000000	-92.621719
2428.000000	-90.155685
2432.000000	-88.990044
2436.000000	-89.073982
2440.000000	-84.707474
2444.000000	-83.877388
2448.000000	-81.426476
2452.000000	-82.239235
2456.000000	-85.985207
2460.000000	-88.459503
2464.000000	-90.294426
2468.000000	-85.405113
2472.000000	-87.351799
2476.000000	-94.157555
2480.000000	-91.876038
2484.000000	-88.918350
2488.000000	-85.478493
2492.000000	-84.044983
2496.000000	-80.750122
2500.000000	-78.622765
2504.000000	-83.358192
2508.000000	-84.718742
2512.000000	-86.817978
2516.000000	-85.662567
2520.000000	-83.469315
2524.000000	-86.801605
2528.000000	-90.973404
2532.000000	-89.573204
2536.000000	-88.142410
2540.000000	-86.008408
2544.000000	-87.229416
2548.000000	-91.754799
2552.000000	-83.995773
2556.000000	-82.047501
2560.000000	-82.818977
2564.000000	-85.011749
2568.000000	-86.250847
2572.000000	-85.474396
2576.000000	-86.271431
2580.000000	-89.851730
2584.000000	-88.680038
2588.000000	-86.286087
2592.000000	-86.332329
2596.000000	-87.468864
2600.000000	-91.052643
2604.000000	-86.282089
2608.000000	-84.453400
2612.000000	-86.200790
2616.000000	-90.870827
2620.000000	-89.594803
2624.000000	-87.971954
2628.000000	-90.534775
2632.000000	-87.669563
2636.000000	-87.524849
2640.000000	-84.624985
2644.000000	-79.317017
2648.000000	-79.977509
2652.000000	-81.848824
2656.000000	-84.415718
2660.000000	-84.500633
2664.000000	-83.777977
2668.000000	-84.924355
2672.000000	-88.362465
2676.000000	-90.988029
2680.000000	-88.874077
2684.000000	-86.511993
2688.000000	-85.292213
2692.000000	-84.485435
2696.000000	-84.392090
2700.000000	-86.157455
2704.000000	-87.082542
2708.000000	-85.714371
2712.000000	-85.856590
2716.000000	-86.247070
2720.000000	-87.944168
2724.000000	-90.620865
2728.000000	-90.387299
2732.000000	-87.644394
2736.000000	-86.685356
2740.000000	-87.075798
2744.000000	-84.658142
2748.000000	-85.607956
2752.000000	-91.198280
2756.000000	-89.957451
2760.000000	-88.365250
2764.000000	-88.384277
2768.000000	-86.574158
2772.000000	-84.411324
2776.000000	-86.153404
2780.000000	-88.847023
2784.000000	-89.072632
2788.000000	-88.343376
2792.000000	-88.890732
2796.000000	-84.489265
2800.000000	-83.719238
2804.000000	-87.177460
2808.000000	-86.478226
2812.000000	-91.585793
2816.000000	-86.433098
2820.000000	-89.409760
2824.000000	-88.543434
2828.000000	-87.275558
2832.000000	-84.851860
2836.000000	-85.642723
2840.000000	-84.075073
2844.000000	-84.288399
2848.000000	-81.698570
2852.000000	-84.306938
2856.000000	-89.520287
2860.000000	-88.489326
2864.000000	-87.015564
2868.000000	-88.422783
2872.000000	-89.098503
2876.000000	-89.174141
2880.000000	-86.614120
2884.000000	-83.400398
2888.000000	-82.201782
2892.000000	-84.532028
2896.000000	-89.161621
2900.000000	-89.537552
2904.000000	-90.399422
2908.000000	-87.628487
2912.000000	-85.952423
2916.000000	-89.925224
2920.000000	-89.350327
2924.000000	-87.149666
2928.000000	-86.904732
2932.000000	-88.070755
2936.000000	-85.993507
2940.000000	-82.492599
2944.000000	-82.313652
2948.000000	-85.466988
2952.000000	-87.681717
2956.000000	-91.485977
2960.000000	-86.661720
2964.000000	-89.102280
2968.000000	-90.211746
2972.000000	-87.872704
2976.000000	-88.808029
2980.000000	-89.627220
2984.000000	-86.311897
2988.000000	-85.176994
2992.000000	-85.254837
2996.000000	-85.711754
3000.000000	-87.050690
3004.000000	-87.189064
3008.000000	-89.946999
3012.000000	-88.180786
3016.000000	-89.228294
3020.000000	-86.946846
3024.000000	-90.995422
3028.000000	-87.406158
3032.000000	-88.216393
3036.000000	-86.113152
3040.000000	-86.526825
3044.000000	-91.105148
3048.000000	-94.614754
3052.000000	-90.426720
3056.000000	-86.847656
3060.000000	-89.632530
3064.000000	-89.291344
3068.000000	-87.205818
3072.000000	-86.494843
3076.000000	-87.279938
3080.000000	-83.585533
3084.000000	-82.233910
3088.000000	-82.014038
3092.000000	-84.642982
3096.000000	-84.253677
3100.000000	-85.440590
3104.000000	-88.828484
3108.000000	-91.143494
3112.000000	-94.729958
3116.000000	-90.763618
3120.000000	-88.322914
3124.000000	-87.815193
3128.000000	-86.923737
3132.000000	-86.460800
3136.000000	-87.568893
3140.000000	-89.319221
3144.000000	-88.532837
3148.000000	-86.305969
3152.000000	-83.533821
3156.000000	-83.169594
3160.000000	-84.973534
3164.000000	-92.313118
3168.000000	-89.134186
3172.000000	-85.607643
3176.000000	-85.930634
3180.000000	-88.449242
3184.000000	-88.950943
3188.000000	-88.142944
3192.000000	-89.754128
3196.000000	-86.427658
3200.000000	-85.979950
3204.000000	-87.516449
3208.000000	-91.705666
3212.000000	-91.247574
3216.000000	-89.998573
3220.000000	-88.414726
3224.000000	-83.694031
3228.000000	-84.801773
3232.000000	-87.154922
3236.000000	-89.382187
3240.000000	-89.703827
3244.000000	-87.610359
3248.000000	-86.730957
3252.000000	-85.862915
3256.000000	-85.416306
3260.000000	-84.857124
3264.000000	-90.116989
3268.000000	-89.484207
3272.000000	-86.475769
3276.000000	-84.918343
3280.000000	-85.802269
3284.000000	-87.504318
3288.000000	-88.514305
3292.000000	-88.367401
3296.000000	-90.498177
3300.000000	-92.247726
3304.000000	-90.085541
3308.000000	-92.723724
3312.000000	-88.509781
3316.000000	-86.659851
3320.000000	-87.102531
3324.000000	-91.781860
3328.000000	-87.370026
3332.000000	-85.367683
3336.000000	-85.998688
3340.000000	-86.198174
3344.000000	-87.881371
3348.000000	-87.027977
3352.000000	-87.122360
3356.000000	-88.637093
3360.000000	-87.526108
3364.000000	-85.118736
3368.000000	-85.595848
3372.000000	-88.208244
3376.000000	-87.470627
3380.000000	-84.138718
3384.000000	-86.422653
3388.000000	-87.612831
3392.000000	-89.451012
3396.000000	-91.899513
3400.000000	-89.428329
3404.000000	-89.445480
3408.000000	-88.582832
3412.000000	-91.952385
3416.000000	-88.992722
3420.000000	-87.841957
3424.000000	-89.271255
3428.000000	-89.805992
3432.000000	-88.649742
3436.000000	-89.590248
3440.000000	-91.310875
3444.000000	-97.484276
3448.000000	-93.542534
3452.000000	-88.171066
3456.000000	-86.030907
3460.000000	-87.717453
3464.000000	-89.166313
3468.000000	-91.108467
3472.000000	-88.232323
3476.000000	-86.498207
3480.000000	-85.079330
3484.000000	-87.874214
3488.000000	-91.238876
3492.000000	-92.278824
3496.000000	-90.506317
3500.000000	-87.202675
3504.000000	-86.574547
3508.000000	-86.255974
3512.000000	-88.465500
3516.000000	-89.515175
3520.000000	-85.195328
3524.000000	-86.001450
3528.000000	-84.885597
3532.000000	-84.872803
3536.000000	-87.629898
3540.000000	-91.668068
3544.000000	-90.272476
3548.000000	-84.516739
3552.000000	-86.107887
3556.000000	-92.910690
3560.000000	-91.832611
3564.000000	-91.532166
3568.000000	-89.951523
3572.000000	-85.426407
3576.000000	-86.678825
3580.000000	-90.055077
3584.000000	-93.673103
3588.000000	-90.068115
3592.000000	-89.260422
3596.000000	-90.305107
3600.000000	-90.808502
3604.000000	-90.997147
3608.000000	-88.842339
3612.000000	-89.736580
3616.000000	-89.653778
3620.000000	-89.876930
3624.000000	-87.000061
3628.000000	-86.522202
3632.000000	-89.479034
3636.000000	-88.930222
3640.000000	-91.600426
3644.000000	-87.502441
3648.000000	-91.455856
3652.000000	-90.126892
3656.000000	-88.472672
3660.000000	-90.613441
3664.000000	-88.624527
3668.000000	-88.123741
3672.000000	-88.344391
3676.000000	-87.755714
3680.000000	-88.277611
3684.000000	-85.616302
3688.000000	-84.828087
3692.000000	-85.748924
3696.000000	-86.292717
3700.000000	-87.251900
3704.000000	-93.267494
3708.000000	-91.785423
3712.000000	-85.338081
3716.000000	-85.316994
3720.000000	-87.656357
3724.000000	-88.129234
3728.000000	-90.486748
3732.000000	-92.000015
3736.000000	-88.741005
3740.000000	-86.533638
3744.000000	-85.429375
3748.000000	-90.086021
3752.000000	-96.183807
3756.000000	-90.993027
3760.000000	-85.197624
3764.000000	-84.518959
3768.000000	-86.822243
3772.000000	-85.668175
3776.000000	-85.781967
3780.000000	-87.716881
3784.000000	-86.309998
3788.000000	-84.894310
3792.000000	-86.751602
3796.000000	-90.257187
3800.000000	-90.769844
3804.000000	-90.448952
3808.000000	-90.792870
3812.000000	-89.038208
3816.000000	-90.072220
3820.000000	-91.711639
3824.000000	-93.555817
3828.000000	-91.785370
3832.000000	-89.198730
3836.000000	-88.868225
3840.000000	-86.567039
3844.000000	-87.061363
3848.000000	-91.621460
3852.000000	-88.046585
3856.000000	-88.973740
3860.000000	-87.902863
3864.000000	-86.130798
3868.000000	-86.482307
3872.000000	-88.155006
3876.000000	-91.232414
3880.000000	-87.461662
3884.000000	-87.489372
3888.000000	-89.796043
3892.000000	-90.641899
3896.000000	-92.321724
3900.000000	-89.593590
3904.000000	-87.385414
3908.000000	-90.376045
3912.000000	-90.708221
3916.000000	-90.747360
3920.000000	-88.524879
3924.000000	-85.838837
3928.000000	-88.579918
3932.000000	-93.962669
3936.000000	-90.324188
3940.000000	-89.708267
3944.000000	-89.247986
3948.000000	-94.497993
3952.000000	-88.200050
3956.000000	-86.580360
3960.000000	-87.837738
3964.000000	-93.042397
3968.000000	-96.048630
3972.000000	-91.886009
3976.000000	-88.179398
3980.000000	-88.741196
3984.000000	-88.512703
3988.000000	-85.168503
3992.000000	-86.017174
3996.000000	-89.283646
4000.000000	-90.511681
4004.000000	-91.971123
4008.000000	-91.440231
4012.000000	-90.963280
4016.000000	-90.349457
4020.000000	-89.647194
4024.000000	-89.975365
4028.000000	-87.665672
4032.000000	-86.560532
4036.000000	-89.707336
4040.000000	-90.297264
4044.000000	-89.337761
4048.000000	-87.332489
4052.000000	-87.648483
4056.000000	-88.059326
4060.000000	-87.174278
4064.000000	-86.456314
4068.000000	-84.109528
4072.000000	-85.948837
4076.000000	-88.108734
4080.000000	-90.040703
4084.000000	-88.949463
4088.000000	-87.638031
4092.000000	-93.743225
4096.000000	-92.712532
4100.000000	-91.120377
4104.000000	-98.920868
4108.000000	-92.641464
4112.000000	-92.203156
4116.000000	-89.487068
4120.000000	-89.323158
4124.000000	-90.662201
4128.000000	-90.275757
4132.000000	-91.179092
4136.000000	-89.387177
4140.000000	-89.452530
4144.000000	-92.983185
4148.000000	-89.271500
4152.000000	-88.265343
4156.000000	-87.762619
4160.000000	-89.224503
4164.000000	-91.437790
4168.000000	-90.993141
4172.000000	-90.824448
4176.000000	-89.480362
4180.000000	-89.009521
4184.000000	-85.951248
4188.000000	-87.384377
4192.000000	-89.201645
4196.000000	-90.696091
4200.000000	-90.385567
4204.000000	-88.762360
4208.000000	-87.366783
4212.000000	-84.671913
4216.000000	-85.264961
4220.000000	-88.639900
4224.000000	-91.573395
4228.000000	-94.405106
4232.000000	-88.761330
4236.000000	-87.667915
4240.000000	-88.300034
4244.000000	-90.294090
4248.000000	-87.542320
4252.000000	-86.053978
4256.000000	-85.372124
4260.000000	-85.853928
4264.000000	-86.330513
4268.000000	-88.950882
4272.000000	-94.683952
4276.000000	-91.047104
4280.000000	-88.855400
4284.000000	-87.740921
4288.000000	-87.912392
4292.000000	-88.423599
4296.000000	-89.446663
4300.000000	-89.700645
4304.000000	-87.898880
4308.000000	-92.993172
4312.000000	-92.977501
4316.000000	-91.553444
4320.000000	-98.040665
4324.000000	-89.706329
4328.000000	-85.316460
4332.000000	-85.357414
4336.000000	-85.818123
4340.000000	-89.256447
4344.000000	-90.812096
4348.000000	-89.141167
4352.000000	-94.011307
4356.000000	-90.303398
4360.000000	-87.247368
4364.000000	-85.830795
4368.000000	-88.141655
4372.000000	-89.707275
4376.000000	-91.798897
4380.000000	-86.539719
4384.000000	-87.161018
4388.000000	-91.402863
4392.000000	-91.323456
4396.000000	-93.412712
4400.000000	-88.635468
4404.000000	-88.874321
4408.000000	-88.564445
4412.000000	-88.721451
4416.000000	-87.112541
4420.000000	-86.193794
4424.000000	-90.344795
4428.000000	-89.408348
4432.000000	-91.286598
4436.000000	-92.751350
4440.000000	-90.051933
4444.000000	-88.203087
4448.000000	-91.652847
4452.000000	-89.772942
4456.000000	-92.249664
4460.000000	-90.335403
4464.000000	-91.557526
4468.000000	-91.220566
4472.000000	-88.143715
4476.000000	-89.887169
4480.000000	-90.823982
4484.000000	-91.471443
4488.000000	-95.728302
4492.000000	-96.453087
4496.000000	-89.675568
4500.000000	-86.849182
4504.000000	-87.068932
4508.000000	-86.486046
4512.000000	-86.793724
4516.000000	-89.735748
4520.000000	-93.341743
4524.000000	-90.231262
4528.000000	-90.055550
4532.000000	-92.439888
4536.000000	-88.632690
4540.000000	-90.257553
4544.000000	-91.547913
4548.000000	-88.767838
4552.000000	-86.634895
4556.000000	-85.668274
4560.000000	-87.564568
4564.000000	-90.849609
4568.000000	-90.443253
4572.000000	-92.788681
4576.000000	-90.507912
4580.000000	-88.655136
4584.000000	-87.441055
4588.000000	-86.779869
4592.000000	-88.845116
4596.000000	-87.564629
4600.000000	-92.474709
4604.000000	-91.069885
4608.000000	-89.821770
4612.000000	-88.970154
4616.000000	-89.886673
4620.000000	-90.430710
4624.000000	-93.655525
4628.000000	-90.289467
4632.000000	-89.694893
4636.000000	-90.452545
4640.000000	-87.982101
4644.000000	-88.842354
4648.000000	-88.888138
4652.000000	-90.656914
4656.000000	-95.301491
4660.000000	-92.463280
4664.000000	-90.599403
4668.000000	-90.580673
4672.000000	-90.277946
4676.000000	-90.303513
4680.000000	-90.348213
4684.000000	-91.083260
4688.000000	-91.563080
4692.000000	-91.007744
4696.000000	-90.565147
4700.000000	-90.824203
4704.000000	-88.431961
4708.000000	-89.684464
4712.000000	-91.208626
4716.000000	-93.521759
4720.000000	-90.195450
4724.000000	-86.704147
4728.000000	-88.186676
4732.000000	-90.071289
4736.000000	-90.411629
4740.000000	-91.520180
4744.000000	-95.110870
4748.000000	-90.925117
4752.000000	-90.966957
4756.000000	-87.492439
4760.000000	-88.519829
4764.000000	-89.611366
4768.000000	-89.475410
4772.000000	-88.409195
4776.000000	-86.938400
4780.000000	-87.535675
4784.000000	-90.821770
4788.000000	-89.335670
4792.000000	-89.275261
4796.000000	-92.726547
4800.000000	-87.306870
4804.000000	-86.368179
4808.000000	-88.741760
4812.000000	-89.591568
4816.000000	-90.483963
4820.000000	-90.529305
4824.000000	-91.350403
4828.000000	-92.254425
4832.000000	-93.475868
4836.000000	-89.090599
4840.000000	-90.516403
4844.000000	-93.474678
4848.000000	-90.013611
4852.000000	-86.264320
4856.000000	-87.732330
4860.000000	-91.257393
4864.000000	-90.034592
4868.000000	-88.191658
4872.000000	-88.356155
4876.000000	-92.370010
4880.000000	-96.137611
4884.000000	-94.163437
4888.000000	-91.499619
4892.000000	-93.453468
4896.000000	-94.906921
4900.000000	-93.242805
4904.000000	-93.640450
4908.000000	-93.485184
4912.000000	-93.240700
4916.000000	-92.553902
4920.000000	-93.473709
4924.000000	-93.017891
4928.000000	-90.492889
4932.000000	-88.416473
4936.000000	-94.057014
4940.000000	-93.412277
4944.000000	-91.508835
4948.000000	-90.507164
4952.000000	-91.814606
4956.000000	-92.392601
4960.000000	-91.229942
4964.000000	-91.657646
4968.000000	-90.597595
4972.000000	-88.354881
4976.000000	-90.754875
4980.000000	-92.824821
4984.000000	-93.924347
4988.000000	-90.033875
4992.000000	-89.330269
4996.000000	-92.055458
5000.000000	-93.756737
5004.000000	-92.833870
5008.000000	-91.700005
5012.000000	-91.276199
5016.000000	-92.149147
5020.000000	-89.358131
5024.000000	-87.998558
5028.000000	-90.357025
5032.000000	-97.219337
5036.000000	-91.930000
5040.000000	-87.238930
5044.000000	-87.945717
5048.000000	-88.959404
5052.000000	-86.411308
5056.000000	-90.803513
5060.000000	-92.646118
5064.000000	-96.885231
5068.000000	-92.103745
5072.000000	-91.940834
5076.000000	-90.021408
5080.000000	-90.508743
5084.000000	-89.026825
5088.000000	-88.550278
5092.000000	-90.834816
5096.000000	-90.437950
5100.000000	-89.120621
5104.000000	-90.261925
5108.000000	-91.131363
5112.000000	-98.732765
5116.000000	-91.342850
5120.000000	-86.315750
5124.000000	-87.497520
5128.000000	-91.253166
5132.000000	-87.142372
5136.000000	-88.806007
5140.000000	-89.495811
5144.000000	-90.505913
5148.000000	-88.820358
5152.000000	-89.579483
5156.000000	-87.371086
5160.000000	-87.667404
5164.000000	-90.322098
5168.000000	-90.130898
5172.000000	-92.479263
5176.000000	-90.143005
5180.000000	-90.288040
5184.000000	-88.216644
5188.000000	-87.714539
5192.000000	-88.558792
5196.000000	-87.781937
5200.000000	-87.416054
5204.000000	-87.225311
5208.000000	-90.104118
5212.000000	-92.815147
5216.000000	-88.458870
5220.000000	-89.785858
5224.000000	-89.070419
5228.000000	-89.168129
5232.000000	-91.350540
5236.000000	-95.041702
5240.000000	-96.603821
5244.000000	-92.037300
5248.000000	-91.856735
5252.000000	-92.063927
5256.000000	-94.521561
5260.000000	-93.382256
5264.000000	-92.887489
5268.000000	-91.372086
5272.000000	-86.698929
5276.000000	-86.451401
5280.000000	-88.448853
5284.000000	-92.594498
5288.000000	-93.830200
5292.000000	-93.198700
5296.000000	-92.093788
5300.000000	-92.847099
5304.000000	-95.143044
5308.000000	-95.181778
5312.000000	-91.065521
5316.000000	-91.314445
5320.000000	-93.239899
5324.000000	-93.906631
5328.000000	-90.106522
5332.000000	-89.069649
5336.000000	-90.805817
5340.000000	-89.541344
5344.000000	-91.301132
5348.000000	-90.038956
5352.000000	-92.684593
5356.000000	-93.493378
5360.000000	-91.187256
5364.000000	-94.718552
5368.000000	-92.638870
5372.000000	-91.043877
5376.000000	-89.830872
5380.000000	-92.086891
5384.000000	-89.424850
5388.000000	-88.969475
5392.000000	-88.769356
5396.000000	-91.636505
5400.000000	-93.451897
5404.000000	-92.609344
5408.000000	-88.296600
5412.000000	-90.979507
5416.000000	-91.037476
5420.000000	-91.777962
5424.000000	-92.958405
5428.000000	-90.522583
5432.000000	-90.870682
5436.000000	-93.786514
5440.000000	-93.830849
5444.000000	-95.184196
5448.000000	-92.055481
5452.000000	-87.297020
5456.000000	-86.881180
5460.000000	-88.848701
5464.000000	-88.542412
5468.000000	-90.838539
5472.000000	-92.711411
5476.000000	-89.882912
5480.000000	-91.876442
5484.000000	-89.078285
5488.000000	-87.902885
5492.000000	-88.918243
5496.000000	-92.374947
5500.000000	-92.142937
5504.000000	-96.212173
5508.000000	-91.801636
5512.000000	-88.608833
5516.000000	-90.749329
5520.000000	-92.524101
5524.000000	-89.108742
5528.000000	-92.556808
5532.000000	-97.253494
5536.000000	-91.316017
5540.000000	-90.549110
5544.000000	-90.232857
5548.000000	-94.644974
5552.000000	-92.101303
5556.000000	-94.519821
5560.000000	-95.442055
5564.000000	-96.191513
5568.000000	-94.384583
5572.000000	-92.109039
5576.000000	-91.860939
5580.000000	-92.449524
5584.000000	-92.543381
5588.000000	-92.637131
5592.000000	-89.724854
5596.000000	-91.196793
5600.000000	-95.456413
5604.000000	-97.970558
5608.000000	-90.330154
5612.000000	-86.757019
5616.000000	-87.986931
5620.000000	-91.651642
5624.000000	-93.079353
5628.000000	-97.258514
5632.000000	-90.774452
5636.000000	-89.424858
5640.000000	-88.728081
5644.000000	-95.589363
5648.000000	-93.794495
5652.000000	-92.293068
5656.000000	-90.899323
5660.000000	-91.456642
5664.000000	-89.056580
5668.000000	-87.290985
5672.000000	-90.356476
5676.000000	-91.839851
5680.000000	-90.537773
5684.000000	-92.163231
5688.000000	-90.137764
5692.000000	-89.734344
5696.000000	-88.346397
5700.000000	-91.196121
5704.000000	-89.594788
5708.000000	-90.113335
5712.000000	-89.933479
5716.000000	-93.230316
5720.000000	-92.878700
5724.000000	-94.285011
5728.000000	-101.662346
5732.000000	-98.866814
5736.000000	-94.929703
5740.000000	-94.396088
5744.000000	-92.367935
5748.000000	-89.880852
5752.000000	-87.971519
5756.000000	-87.058876
5760.000000	-90.054626
5764.000000	-87.993584
5768.000000	-88.962105
5772.000000	-93.476448
5776.000000	-89.733215
5780.000000	-89.798912
5784.000000	-92.271965
5788.000000	-93.187897
5792.000000	-90.245537
5796.000000	-86.869301
5800.000000	-87.828209
5804.000000	-88.240646
5808.000000	-87.256615
5812.000000	-87.961433
5816.000000	-90.097610
5820.000000	-93.877586
5824.000000	-93.119408
5828.000000	-92.516296
5832.000000	-91.426125
5836.000000	-91.690720
5840.000000	-90.488022
5844.000000	-90.581879
5848.000000	-91.559891
5852.000000	-93.445763
5856.000000	-90.350319
5860.000000	-87.608833
5864.000000	-88.815002
5868.000000	-89.147659
5872.000000	-90.435791
5876.000000	-95.206650
5880.000000	-94.462608
5884.000000	-93.885643
5888.000000	-94.692543
5892.000000	-96.762466
5896.000000	-98.154083
5900.000000	-93.009613
5904.000000	-94.899086
5908.000000	-90.462006
5912.000000	-90.710365
5916.000000	-90.161949
5920.000000	-87.169006
5924.000000	-89.430977
5928.000000	-90.319931
5932.000000	-88.586426
5936.000000	-89.282082
5940.000000	-89.895729
5944.000000	-90.951813
5948.000000	-97.251190
5952.000000	-92.784035
5956.000000	-88.462570
5960.000000	-88.187675
5964.000000	-88.871544
5968.000000	-91.184685
5972.000000	-94.518906
5976.000000	-92.247528
5980.000000	-92.304146
5984.000000	-95.230637
5988.000000	-92.267448
5992.000000	-90.896416
5996.000000	-90.893784
6000.000000	-90.541862
6004.000000	-93.998856
6008.000000	-97.389893
6012.000000	-94.184387
6016.000000	-94.078880
6020.000000	-91.979515
6024.000000	-91.515213
6028.000000	-91.494606
6032.000000	-88.588280
6036.000000	-88.909035
6040.000000	-92.451431
6044.000000	-92.944397
6048.000000	-95.655846
6052.000000	-95.464775
6056.000000	-91.866516
6060.000000	-90.494392
6064.000000	-91.811859
6068.000000	-93.816940
6072.000000	-96.992599
6076.000000	-98.318268
6080.000000	-95.412354
6084.000000	-97.981758
6088.000000	-95.804367
6092.000000	-90.301788
6096.000000	-90.603714
6100.000000	-91.728569
6104.000000	-90.552589
6108.000000	-90.811821
6112.000000	-90.030342
6116.000000	-92.839767
6120.000000	-91.326088
6124.000000	-91.503517
6128.000000	-90.465988
6132.000000	-91.085197
6136.000000	-90.234253
6140.000000	-91.511726
6144.000000	-93.342819
6148.000000	-92.502373
6152.000000	-92.065483
6156.000000	-92.566780
6160.000000	-90.071785
6164.000000	-91.220375
6168.000000	-94.135345
6172.000000	-92.573936
6176.000000	-93.575584
6180.000000	-89.378555
6184.000000	-88.049286
6188.000000	-88.813469
6192.000000	-90.915642
6196.000000	-91.163727
6200.000000	-88.953041
6204.000000	-89.287025
6208.000000	-93.348648
6212.000000	-96.098862
6216.000000	-93.366821
6220.000000	-93.469360
6224.000000	-99.282921
6228.000000	-96.745949
6232.000000	-94.629166
6236.000000	-93.305267
6240.000000	-93.341484
6244.000000	-92.027214
6248.000000	-89.787849
6252.000000	-90.334145
6256.000000	-91.340240
6260.000000	-94.647697
6264.000000	-92.463112
6268.000000	-92.433479
6272.000000	-88.776932
6276.000000	-89.425545
6280.000000	-90.278458
6284.000000	-92.657448
6288.000000	-91.512001
6292.000000	-91.139641
6296.000000	-94.153702
6300.000000	-93.342789
6304.000000	-91.920906
6308.000000	-91.615738
6312.000000	-94.436852
6316.000000	-92.613304
6320.000000	-93.230118
6324.000000	-94.238319
6328.000000	-92.621086
6332.000000	-90.929489
6336.000000	-91.164749
6340.000000	-92.544983
6344.000000	-92.551857
6348.000000	-91.075813
6352.000000	-87.662415
6356.000000	-88.825493
6360.000000	-93.281143
6364.000000	-91.743912
6368.000000	-90.402359
6372.000000	-91.291870
6376.000000	-92.222343
6380.000000	-93.373543
6384.000000	-94.068497
6388.000000	-97.855118
6392.000000	-90.478027
6396.000000	-87.804710
6400.000000	-87.908386
6404.000000	-92.739952
6408.000000	-93.041733
6412.000000	-91.009163
6416.000000	-90.433800
6420.000000	-89.378342
6424.000000	-90.367294
6428.000000	-90.428459
6432.000000	-89.544022
6436.000000	-90.973961
6440.000000	-94.953644
6444.000000	-93.033150
6448.000000	-90.868378
6452.000000	-95.010391
6456.000000	-93.490456
6460.000000	-91.067734
6464.000000	-90.128540
6468.000000	-91.279404
6472.000000	-90.102928
6476.000000	-89.432755
6480.000000	-92.654076
6484.000000	-92.925301
6488.000000	-94.434914
6492.000000	-92.183281
6496.000000	-91.939880
6500.000000	-90.031197
6504.000000	-88.724770
6508.000000	-92.024712
6512.000000	-95.940292
6516.000000	-97.551208
6520.000000	-94.809189
6524.000000	-94.974617
6528.000000	-92.523262
6532.000000	-93.016815
6536.000000	-92.485077
6540.000000	-93.731392
6544.000000	-93.600182
6548.000000	-93.658661
6552.000000	-93.154297
6556.000000	-91.496651
6560.000000	-92.649162
6564.000000	-92.208832
6568.000000	-92.114906
6572.000000	-95.126457
6576.000000	-96.859764
6580.000000	-92.057114
6584.000000	-90.145409
6588.000000	-90.176598
6592.000000	-85.863899
6596.000000	-86.918861
6600.000000	-93.100426
6604.000000	-92.481987
6608.000000	-90.431801
6612.000000	-90.125168
6616.000000	-89.438171
6620.000000	-92.556648
6624.000000	-96.058250
6628.000000	-97.297523
6632.000000	-91.426018
6636.000000	-88.790062
6640.000000	-92.157837
6644.000000	-92.534958
6648.000000	-91.255951
6652.000000	-92.574951
6656.000000	-93.351578
6660.000000	-89.387352
6664.000000	-86.971710
6668.000000	-90.530357
6672.000000	-94.013702
6676.000000	-91.302391
6680.000000	-92.588242
6684.000000	-95.663979
6688.000000	-89.244011
6692.000000	-88.966904
6696.000000	-92.472542
6700.000000	-95.522224
6704.000000	-92.774139
6708.000000	-89.550354
6712.000000	-90.250610
6716.000000	-90.495796
6720.000000	-91.230789
6724.000000	-94.163467
6728.000000	-91.726227
6732.000000	-91.635185
6736.000000	-93.471306
6740.000000	-94.093155
6744.000000	-93.916260
6748.000000	-89.200134
6752.000000	-90.905960
6756.000000	-92.722382
6760.000000	-92.092949
6764.000000	-91.249359
6768.000000	-93.829536
6772.000000	-95.561653
6776.000000	-90.570374
6780.000000	-90.109085
6784.000000	-94.046638
6788.000000	-91.548843
6792.000000	-91.416420
6796.000000	-93.665840
6800.000000	-90.789528
6804.000000	-90.416733
6808.000000	-91.184639
6812.000000	-89.980789
6816.000000	-91.307579
6820.000000	-93.454781
6824.000000	-93.492966
6828.000000	-90.376457
6832.000000	-90.538795
6836.000000	-93.912437
6840.000000	-93.209526
6844.000000	-94.242516
6848.000000	-93.106270
6852.000000	-90.465599
6856.000000	-90.391579
6860.000000	-91.851173
6864.000000	-94.809128
6868.000000	-91.907669
6872.000000	-90.456589
6876.000000	-94.522820
6880.000000	-92.909203
6884.000000	-91.386215
6888.000000	-89.750488
6892.000000	-90.212791
6896.000000	-90.678017
6900.000000	-90.473274
6904.000000	-89.536552
6908.000000	-89.275513
6912.000000	-89.648926
6916.000000	-91.928078
6920.000000	-91.451111
6924.000000	-87.868744
6928.000000	-88.774902
6932.000000	-93.528679
6936.000000	-92.660400
6940.000000	-90.580353
6944.000000	-94.902382
6948.000000	-94.562416
6952.000000	-97.870605
6956.000000	-96.769577
6960.000000	-95.625320
6964.000000	-95.554703
6968.000000	-92.277275
6972.000000	-89.368164
6976.000000	-90.164467
6980.000000	-95.251488
6984.000000	-92.966217
6988.000000	-89.458160
6992.000000	-90.125832
6996.000000	-91.958046
7000.000000	-92.397942
7004.000000	-92.394112
7008.000000	-91.664032
7012.000000	-91.887711
7016.000000	-94.797646
7020.000000	-93.712074
7024.000000	-89.717163
7028.000000	-93.266708
7032.000000	-93.319267
7036.000000	-92.166786
7040.000000	-92.763809
7044.000000	-92.551865
7048.000000	-92.122375
7052.000000	-91.340721
7056.000000	-91.610085
7060.000000	-93.546448
7064.000000	-92.878159
7068.000000	-89.369751
7072.000000	-88.871452
7076.000000	-91.358543
7080.000000	-91.191582
7084.000000	-91.425842
7088.000000	-92.678772
7092.000000	-91.437363
7096.000000	-92.624779
7100.000000	-95.544365
7104.000000	-99.087212
7108.000000	-94.898323
7112.000000	-93.334778
7116.000000	-88.782761
7120.000000	-90.898109
7124.000000	-96.529419
7128.000000	-97.639442
7132.000000	-94.445930
7136.000000	-98.333588
7140.000000	-95.230423
7144.000000	-94.256531
7148.000000	-93.915115
7152.000000	-91.875648
7156.000000	-91.835922
7160.000000	-94.998489
7164.000000	-95.568184
7168.000000	-93.727448
7172.000000	-94.711502
7176.000000	-94.179504
7180.000000	-98.116379
7184.000000	-90.966850
7188.000000	-87.655670
7192.000000	-86.346298
7196.000000	-87.853928
7200.000000	-93.242966
7204.000000	-94.029884
7208.000000	-91.613884
7212.000000	-93.342323
7216.000000	-93.186836
7220.000000	-91.006470
7224.000000	-92.020775
7228.000000	-95.135689
7232.000000	-94.809441
7236.000000	-92.814102
7240.000000	-92.531052
7244.000000	-92.634293
7248.000000	-94.106956
7252.000000	-90.276840
7256.000000	-89.301926
7260.000000	-93.536728
7264.000000	-92.585526
7268.000000	-93.937897
7272.000000	-93.387642
7276.000000	-90.489418
7280.000000	-92.897255
7284.000000	-96.297951
7288.000000	-95.183594
7292.000000	-94.140663
7296.000000	-96.195007
7300.000000	-91.627968
7304.000000	-90.660904
7308.000000	-93.260612
7312.000000	-93.299828
7316.000000	-92.362343
7320.000000	-90.209358
7324.000000	-90.318344
7328.000000	-88.418793
7332.000000	-89.452370
7336.000000	-90.716637
7340.000000	-93.527985
7344.000000	-94.667435
7348.000000	-96.513748
7352.000000	-96.796516
7356.000000	-91.579857
7360.000000	-90.174881
7364.000000	-91.396210
7368.000000	-93.152702
7372.000000	-91.849434
7376.000000	-89.856979
7380.000000	-88.291176
7384.000000	-88.796822
7388.000000	-90.448540
7392.000000	-92.646820
7396.000000	-92.688988
7400.000000	-93.468399
7404.000000	-90.684448
7408.000000	-90.640175
7412.000000	-91.537354
7416.000000	-92.198318
7420.000000	-93.438263
7424.000000	-90.167801
7428.000000	-89.732925
7432.000000	-92.260452
7436.000000	-93.671310
7440.000000	-93.747055
7444.000000	-91.144592
7448.000000	-91.355453
7452.000000	-92.484283
7456.000000	-92.350372
7460.000000	-89.952484
7464.000000	-90.239395
7468.000000	-90.207764
7472.000000	-92.703667
7476.000000	-94.882355
7480.000000	-94.141815
7484.000000	-90.130287
7488.000000	-90.074898
7492.000000	-91.363342
7496.000000	-91.076363
7500.000000	-93.136940
7504.000000	-94.907509
7508.000000	-93.194733
7512.000000	-91.516846
7516.000000	-94.806839
7520.000000	-94.074730
7524.000000	-94.390213
7528.000000	-91.258919
7532.000000	-93.106407
7536.000000	-92.318275
7540.000000	-91.189827
7544.000000	-89.391663
7548.000000	-90.904274
7552.000000	-89.902130
7556.000000	-89.791176
7560.000000	-94.105988
7564.000000	-94.730194
7568.000000	-90.506218
7572.000000	-88.443535
7576.000000	-90.835670
7580.000000	-92.217216
7584.000000	-93.083458
7588.000000	-94.103775
7592.000000	-96.644379
7596.000000	-96.875450
7600.000000	-95.187782
7604.000000	-94.098244
7608.000000	-91.725418
7612.000000	-91.547501
7616.000000	-92.156143
7620.000000	-94.049400
7624.000000	-94.336952
7628.000000	-93.114235
7632.000000	-92.924187
7636.000000	-93.968948
7640.000000	-92.445839
7644.000000	-92.579788
7648.000000	-91.614601
7652.000000	-90.751175
7656.000000	-89.519844
7660.000000	-93.016281
7664.000000	-91.656418
7668.000000	-86.844574
7672.000000	-87.971985
7676.000000	-92.724319
7680.000000	-94.662811
7684.000000	-91.492149
7688.000000	-93.133682
7692.000000	-91.981339
7696.000000	-92.395302
7700.000000	-95.024757
7704.000000	-92.253128
7708.000000	-91.340096
7712.000000	-91.450821
7716.000000	-93.592308
7720.000000	-95.133713
7724.000000	-93.062515
7728.000000	-93.929070
7732.000000	-91.788170
7736.000000	-91.028786
7740.000000	-92.089973
7744.000000	-96.182816
7748.000000	-97.798233
7752.000000	-100.112816
7756.000000	-93.059349
7760.000000	-89.677139
7764.000000	-90.110733
7768.000000	-87.634338
7772.000000	-89.296432
7776.000000	-89.920685
7780.000000	-90.730469
7784.000000	-92.712669
7788.000000	-89.702339
7792.000000	-90.507080
7796.000000	-92.861595
7800.000000	-97.841087
7804.000000	-94.271667
7808.000000	-97.565926
7812.000000	-93.481010
7816.000000	-92.860619
7820.000000	-95.738792
7824.000000	-93.514870
7828.000000	-95.592651
7832.000000	-93.387947
7836.000000	-89.884781
7840.000000	-90.060486
7844.000000	-89.651390
7848.000000	-90.720085
7852.000000	-92.485138
7856.000000	-92.914429
7860.000000	-89.172752
7864.000000	-90.376419
7868.000000	-91.834084
7872.000000	-92.161827
7876.000000	-92.033730
7880.000000	-92.917870
7884.000000	-93.850044
7888.000000	-95.028587
7892.000000	-91.544937
7896.000000	-93.436989
7900.000000	-97.569420
7904.000000	-93.678589
7908.000000	-89.533516
7912.000000	-90.960426
7916.000000	-91.626396
7920.000000	-91.478668
7924.000000	-95.768173
7928.000000	-94.223457
7932.000000	-94.775284
7936.000000	-96.469635
7940.000000	-97.202682
7944.000000	-92.214439
7948.000000	-94.076172
7952.000000	-93.133507
7956.000000	-93.611511
7960.000000	-92.407021
7964.000000	-88.499977
7968.000000	-92.174530
7972.000000	-97.461746
7976.000000	-95.465546
7980.000000	-90.607605
7984.000000	-91.630119
7988.000000	-93.944931
7992.000000	-90.125702
7996.000000	-92.212585
8000.000000	-92.272400
8004.000000	-93.975143
8008.000000	-91.641838
8012.000000	-92.068008
8016.000000	-90.406693
8020.000000	-94.385063
8024.000000	-93.663261
8028.000000	-97.222946
8032.000000	-92.372528
8036.000000	-89.245499
8040.000000	-91.073265
8044.000000	-91.347664
8048.000000	-90.962601
8052.000000	-90.397209
8056.000000	-90.519012
8060.000000	-90.992416
8064.000000	-90.583572
8068.000000	-92.044273
8072.000000	-91.628906
8076.000000	-91.111839
8080.000000	-92.605644
8084.000000	-94.107857
8088.000000	-96.555672
8092.000000	-99.458710
8096.000000	-92.589371
8100.000000	-93.566345
8104.000000	-99.459045
8108.000000	-96.047058
8112.000000	-93.678772
8116.000000	-95.080009
8120.000000	-95.131371
8124.000000	-94.084885
8128.000000	-99.488815
8132.000000	-92.878159
8136.000000	-89.333275
8140.000000	-91.711952
8144.000000	-94.741295
8148.000000	-91.765862
8152.000000	-91.587517
8156.000000	-93.301537
8160.000000	-96.132072
8164.000000	-92.379265
8168.000000	-91.308304
8172.000000	-94.520660
8176.000000	-94.831329
8180.000000	-90.043159
8184.000000	-86.342735
8188.000000	-90.258171
